File: examples/data/xrd_pattern.csv
two_theta_degrees,intensity_counts,background_counts
10.0,125,120
15.0,132,118
20.0,145,115
25.0,178,122
28.5,8542,125
30.0,1245,128
35.0,245,120
40.0,312,125
45.0,198,118
47.3,5234,122
50.0,432,115
55.0,287,120
56.1,3891,118
60.0,356,125
65.0,298,122
69.2,2145,120
70.0,423,118
75.0,312,115
80.0,245,122